File: 220623 - TG_TGA/C4060956-TA_ResinaSola.txt
nstrument TGA-50H
Module TGA
Operator LJ
Sample NC
Size 6.282 mg
Method
Comment
Xcomment Pan: Platinum
Xcomment Gas1: Nitrogen
Xcomment Balance Gas: Nitrogen 20.0 ml/min
Xcomment Sample Gas: Nitrogen 20.0 ml/min
Nsig 3
Sig1 Time (sec)
Sig2 Temperature (C)
Sig3 Weight (mg)
OrgMethod 1: Ramp 10.00 C/min to 800.00 C
.0000	31.30	6.282
16.00	31.77	6.295
32.00	32.80	6.299
48.00	35.49	6.301
64.00	37.84	6.302
80.00	40.06	6.304
96.00	42.41	6.305
112.0	45.16	6.306
128.0	48.15	6.307
144.0	50.84	6.307
160.0	53.15	6.307
176.0	55.61	6.308
192.0	58.31	6.308
208.0	60.80	6.309
224.0	63.66	6.310
240.0	66.28	6.309
256.0	68.87	6.309
272.0	71.31	6.309
288.0	73.86	6.309
304.0	76.39	6.310
320.0	79.11	6.310
336.0	81.65	6.310
352.0	84.61	6.309
368.0	87.28	6.309
384.0	89.89	6.308
400.0	92.34	6.307
416.0	94.84	6.307
432.0	97.50	6.306
448.0	100.4	6.305
464.0	103.2	6.304
480.0	105.8	6.303
496.0	108.2	6.301
512.0	110.7	6.300
528.0	113.6	6.299
544.0	116.4	6.297
560.0	119.1	6.296
576.0	121.7	6.294
592.0	124.2	6.291
608.0	126.8	6.290
624.0	129.5	6.288
640.0	132.3	6.286
656.0	135.2	6.283
672.0	137.6	6.280
688.0	140.1	6.278
704.0	143.2	6.276
720.0	146.1	6.273
736.0	148.4	6.269
752.0	150.7	6.267
768.0	153.1	6.264
784.0	155.9	6.262
800.0	159.1	6.258
816.0	162.0	6.254
832.0	164.2	6.250
848.0	166.6	6.246
864.0	169.4	6.243
880.0	172.2	6.239
896.0	175.1	6.234
912.0	177.5	6.230
928.0	180.0	6.226
944.0	182.5	6.221
960.0	185.1	6.217
976.0	188.3	6.212
992.0	191.1	6.206
1008.	193.5	6.200
1024.	195.9	6.195
1040.	198.6	6.189
1056.	201.5	6.184
1072.	204.4	6.177
1088.	206.8	6.171
1104.	209.3	6.165
1120.	212.1	6.159
1136.	214.9	6.152
1152.	217.5	6.145
1168.	220.2	6.138
1184.	222.9	6.131
1200.	225.5	6.124
1216.	228.2	6.117
1232.	230.9	6.109
1248.	233.5	6.101
1264.	236.2	6.093
1280.	238.8	6.085
1296.	241.4	6.077
1312.	244.1	6.069
1328.	247.1	6.061
1344.	249.6	6.052
1360.	252.1	6.044
1376.	254.8	6.036
1392.	257.5	6.027
1408.	260.4	6.019
1424.	262.9	6.009
1440.	265.4	6.001
1456.	268.3	5.992
1472.	270.8	5.983
1488.	273.4	5.974
1504.	276.3	5.965
1520.	278.9	5.956
1536.	281.2	5.947
1552.	284.1	5.937
1568.	287.1	5.927
1584.	289.5	5.916
1600.	292.0	5.906
1616.	294.9	5.895
1632.	297.8	5.883
1648.	300.3	5.871
1664.	302.7	5.859
1680.	305.5	5.846
1696.	308.5	5.832
1712.	310.7	5.817
1728.	313.4	5.802
1744.	316.4	5.786
1760.	318.9	5.768
1776.	321.4	5.749
1792.	324.2	5.729
1808.	326.8	5.708
1824.	329.8	5.684
1840.	332.2	5.659
1856.	334.5	5.632
1872.	337.3	5.602
1888.	340.4	5.570
1904.	342.9	5.534
1920.	345.5	5.494
1936.	348.2	5.451
1952.	350.7	5.402
1968.	353.6	5.349
1984.	356.4	5.289
2000.	358.9	5.221
2016.	361.5	5.144
2032.	364.3	5.054
2048.	366.9	4.961
2064.	369.6	4.868
2080.	372.0	4.770
2096.	374.8	4.666
2112.	377.5	4.550
2128.	380.2	4.421
2144.	382.6	4.277
2160.	385.6	4.099
2176.	388.5	3.897
2192.	390.8	3.692
2208.	393.5	3.479
2224.	396.3	3.265
2240.	399.0	3.041
2256.	401.7	2.814
2272.	404.2	2.599
2288.	406.9	2.395
2304.	409.6	2.198
2320.	412.4	2.009
2336.	414.8	1.832
2352.	417.6	1.666
2368.	420.2	1.507
2384.	423.1	1.357
2400.	425.8	1.224
2416.	428.6	1.109
2432.	430.6	1.013
2448.	433.1	0.9302
2464.	436.1	0.8641
2480.	438.8	0.8167
2496.	441.3	0.7837
2512.	444.2	0.7586
2528.	447.0	0.7376
2544.	449.4	0.7225
2560.	452.2	0.7097
2576.	454.9	0.6991
2592.	457.4	0.6905
2608.	460.2	0.6836
2624.	462.9	0.6773
2640.	465.4	0.6723
2656.	468.0	0.6683
2672.	470.8	0.6640
2688.	473.4	0.6604
2704.	476.1	0.6569
2720.	478.9	0.6531
2736.	481.4	0.6499
2752.	484.1	0.6463
2768.	486.8	0.6434
2784.	489.4	0.6399
2800.	491.9	0.6365
2816.	494.8	0.6330
2832.	497.4	0.6297
2848.	500.0	0.6256
2864.	502.7	0.6219
2880.	505.3	0.6183
2896.	508.0	0.6144
2912.	510.7	0.6107
2928.	513.5	0.6064
2944.	516.1	0.6018
2960.	518.7	0.5974
2976.	521.5	0.5923
2992.	524.0	0.5864
3008.	526.6	0.5806
3024.	529.4	0.5745
3040.	532.0	0.5672
3056.	534.8	0.5591
3072.	537.6	0.5514
3088.	540.1	0.5427
3104.	542.8	0.5330
3120.	545.7	0.5228
3136.	548.1	0.5124
3152.	550.8	0.5002
3168.	553.5	0.4870
3184.	556.2	0.4729
3200.	558.8	0.4573
3216.	561.4	0.4405
3232.	564.3	0.4226
3248.	566.8	0.4035
3264.	569.5	0.3858
3280.	572.0	0.3680
3296.	574.7	0.3497
3312.	577.4	0.3320
3328.	580.2	0.3133
3344.	582.7	0.2936
3360.	585.5	0.2739
3376.	588.0	0.2546
3392.	590.7	0.2337
3408.	593.5	0.2151
3424.	596.0	0.1958
3440.	598.9	0.1772
3456.	601.3	0.1599
3472.	604.0	0.1448
3488.	606.7	0.1327
3504.	609.3	0.1213
3520.	611.9	0.1155
3536.	614.8	0.1091
3552.	617.3	0.1051
3568.	620.0	0.1036
3584.	622.8	0.1020
3600.	625.5	0.1008
3616.	628.0	0.1009
3632.	630.7	0.1003
3648.	633.4	0.09966
3664.	636.0	0.09993
3680.	638.9	0.09926
3696.	641.5	0.09956
3712.	644.2	0.09908
3728.	646.9	0.09854
3744.	649.5	0.09865
3760.	652.3	0.09808
3776.	655.1	0.09814
3792.	657.7	0.09845
3808.	660.3	0.09857
3824.	663.2	0.09823
3840.	665.8	0.09850
3856.	668.5	0.09798
3872.	671.3	0.09796
3888.	673.8	0.09782
3904.	676.6	0.09859
3920.	679.3	0.09814
3936.	682.0	0.09792
3952.	684.6	0.09866
3968.	687.3	0.09871
3984.	690.0	0.09870
4000.	692.7	0.09911
4016.	695.5	0.09977
4032.	698.1	0.09976
4048.	700.7	0.1008
4064.	703.5	0.1021
4080.	706.1	0.1013
4096.	708.8	0.1017
4112.	711.5	0.1023
4128.	714.2	0.1018
4144.	716.9	0.1028
4160.	719.5	0.1023
4176.	722.2	0.1027
4192.	725.0	0.1033
4208.	727.5	0.1037
4224.	730.3	0.1037
4240.	732.9	0.1038
4256.	735.6	0.1039
4272.	738.2	0.1042
4288.	741.0	0.1044
4304.	743.4	0.1047
4320.	746.2	0.1048
4336.	748.8	0.1062
4352.	751.3	0.1060
4368.	754.1	0.1052
4384.	756.8	0.1052
4400.	759.4	0.1056
4416.	761.9	0.1060
4432.	764.7	0.1063
4448.	767.5	0.1060
4464.	770.3	0.1062
4480.	772.8	0.1063
4496.	775.5	0.1071
4512.	778.2	0.1066
4528.	780.8	0.1064
4544.	783.5	0.1068
4560.	786.1	0.1069
4576.	788.9	0.1088
4592.	791.4	0.1066
4608.	794.1	0.1064
4624.	796.9	0.1063
4640.	799.4	0.1073
4643.	799.9	0.1080