File: 220623 - TG_TGA/C4190947-TA_kit10.txt
Instrument TGA-50H
Module TGA-50H
Operator LJ - LATAT
Sample KIT10
Size 2.764 mg
Method
Comment
Xcomment Pan: Platinum
Xcomment Gas1: Nitrogen
Xcomment Balance Gas: Nitrogen 20.0 ml/min
Xcomment Sample Gas: Nitrogen 20.0 ml/min
Nsig 3
Sig1 Time (sec)
Sig2 Temperature (C)
Sig3 Weight (mg)
OrgMethod 1: Ramp 10.00 C/min to 800.00 C
.0000	30.24	2.765
16.00	31.07	2.777
32.00	32.32	2.780
48.00	34.25	2.780
64.00	36.68	2.780
80.00	38.80	2.781
96.00	41.24	2.782
112.0	44.50	2.782
128.0	47.14	2.780
144.0	49.58	2.779
160.0	51.92	2.778
176.0	54.42	2.777
192.0	56.83	2.777
208.0	59.50	2.777
224.0	62.34	2.776
240.0	64.79	2.775
256.0	67.78	2.774
272.0	70.01	2.773
288.0	72.50	2.773
304.0	75.30	2.773
320.0	78.18	2.772
336.0	80.78	2.771
352.0	83.51	2.770
368.0	86.01	2.769
384.0	88.45	2.769
400.0	90.90	2.768
416.0	93.69	2.768
432.0	96.51	2.767
448.0	99.39	2.767
464.0	101.9	2.766
480.0	104.2	2.765
496.0	106.8	2.765
512.0	109.6	2.764
528.0	112.4	2.764
544.0	115.1	2.763
560.0	117.7	2.763
576.0	120.0	2.763
592.0	122.7	2.762
608.0	125.6	2.762
624.0	128.6	2.761
640.0	131.0	2.761
656.0	133.5	2.760
672.0	136.1	2.760
688.0	139.0	2.760
704.0	141.5	2.759
720.0	144.3	2.759
736.0	147.0	2.759
752.0	149.6	2.759
768.0	152.2	2.758
784.0	155.0	2.758
800.0	157.6	2.758
816.0	160.2	2.758
832.0	163.0	2.757
848.0	165.6	2.757
864.0	168.5	2.757
880.0	171.0	2.756
896.0	173.6	2.756
912.0	176.1	2.756
928.0	179.2	2.755
944.0	181.9	2.755
960.0	184.2	2.754
976.0	186.7	2.754
992.0	189.3	2.754
1008.	192.3	2.753
1024.	195.1	2.753
1040.	197.7	2.752
1056.	200.1	2.751
1072.	202.7	2.751
1088.	205.6	2.750
1104.	208.6	2.749
1120.	211.1	2.748
1136.	213.7	2.747
1152.	216.0	2.746
1168.	218.9	2.746
1184.	222.0	2.745
1200.	224.7	2.743
1216.	226.9	2.742
1232.	229.4	2.741
1248.	232.3	2.739
1264.	235.0	2.737
1280.	237.7	2.735
1296.	240.3	2.733
1312.	242.7	2.731
1328.	245.6	2.729
1344.	248.5	2.727
1360.	250.9	2.724
1376.	253.5	2.722
1392.	256.2	2.719
1408.	259.1	2.717
1424.	261.9	2.714
1440.	264.4	2.711
1456.	266.8	2.709
1472.	269.6	2.707
1488.	272.6	2.704
1504.	275.2	2.701
1520.	277.6	2.699
1536.	280.4	2.696
1552.	283.2	2.693
1568.	285.8	2.690
1584.	288.4	2.688
1600.	290.8	2.685
1616.	293.8	2.682
1632.	296.6	2.679
1648.	299.2	2.675
1664.	301.6	2.672
1680.	304.3	2.669
1696.	307.1	2.666
1712.	309.9	2.662
1728.	312.6	2.659
1744.	315.0	2.655
1760.	317.5	2.652
1776.	320.2	2.648
1792.	323.0	2.644
1808.	325.6	2.640
1824.	328.1	2.637
1840.	331.0	2.633
1856.	333.6	2.630
1872.	336.3	2.626
1888.	338.9	2.621
1904.	341.6	2.618
1920.	344.2	2.613
1936.	346.9	2.609
1952.	349.6	2.604
1968.	352.4	2.599
1984.	354.9	2.595
2000.	357.8	2.589
2016.	360.4	2.583
2032.	363.2	2.578
2048.	365.8	2.572
2064.	368.2	2.565
2080.	370.9	2.558
2096.	373.7	2.552
2112.	376.4	2.544
2128.	379.0	2.536
2144.	381.8	2.527
2160.	384.3	2.518
2176.	386.9	2.508
2192.	389.5	2.498
2208.	392.1	2.486
2224.	395.0	2.475
2240.	397.5	2.463
2256.	400.1	2.450
2272.	402.8	2.436
2288.	405.7	2.421
2304.	408.3	2.405
2320.	410.9	2.389
2336.	413.6	2.371
2352.	416.2	2.354
2368.	418.9	2.337
2384.	421.6	2.320
2400.	424.2	2.306
2416.	427.0	2.293
2432.	429.7	2.283
2448.	432.3	2.273
2464.	435.0	2.264
2480.	437.8	2.255
2496.	440.3	2.247
2512.	443.0	2.239
2528.	445.8	2.231
2544.	448.5	2.223
2560.	451.0	2.216
2576.	453.6	2.209
2592.	456.4	2.202
2608.	459.0	2.196
2624.	461.7	2.190
2640.	464.4	2.185
2656.	467.1	2.180
2672.	469.7	2.176
2688.	472.2	2.172
2704.	475.0	2.168
2720.	477.9	2.164
2736.	480.5	2.161
2752.	483.2	2.158
2768.	485.7	2.156
2784.	488.4	2.154
2800.	491.0	2.152
2816.	493.8	2.150
2832.	496.1	2.148
2848.	499.0	2.147
2864.	501.8	2.145
2880.	504.4	2.144
2896.	506.9	2.143
2912.	509.7	2.142
2928.	512.4	2.141
2944.	515.2	2.141
2960.	517.7	2.140
2976.	520.5	2.140
2992.	523.1	2.139
3008.	525.7	2.139
3024.	528.4	2.139
3040.	531.0	2.139
3056.	533.5	2.139
3072.	536.3	2.139
3088.	538.9	2.139
3104.	541.6	2.139
3120.	544.1	2.139
3136.	547.0	2.139
3152.	549.7	2.139
3168.	552.1	2.139
3184.	554.8	2.139
3200.	557.4	2.139
3216.	560.3	2.139
3232.	563.0	2.140
3248.	565.5	2.140
3264.	568.2	2.140
3280.	570.8	2.140
3296.	573.8	2.140
3312.	576.4	2.140
3328.	578.9	2.141
3344.	581.7	2.141
3360.	584.3	2.142
3376.	587.0	2.142
3392.	589.5	2.142
3408.	592.1	2.143
3424.	594.9	2.143
3440.	597.6	2.143
3456.	600.3	2.144
3472.	602.9	2.144
3488.	605.4	2.145
3504.	608.2	2.145
3520.	611.0	2.145
3536.	613.6	2.145
3552.	616.3	2.145
3568.	619.0	2.145
3584.	621.6	2.144
3600.	624.4	2.145
3616.	627.3	2.144
3632.	629.9	2.144
3648.	632.7	2.144
3664.	635.4	2.143
3680.	638.0	2.142
3696.	640.6	2.142
3712.	643.3	2.141
3728.	646.1	2.140
3744.	648.7	2.140
3760.	651.4	2.139
3776.	654.1	2.139
3792.	656.8	2.139
3808.	659.5	2.138
3824.	662.0	2.138
3840.	664.8	2.138
3856.	667.4	2.137
3872.	670.1	2.137
3888.	672.8	2.137
3904.	675.5	2.137
3920.	678.2	2.136
3936.	680.9	2.136
3952.	683.8	2.136
3968.	686.3	2.136
3984.	688.9	2.135
4000.	691.6	2.135
4016.	694.2	2.135
4032.	696.8	2.135
4048.	699.7	2.134
4064.	702.3	2.135
4080.	704.8	2.135
4096.	707.6	2.134
4112.	710.3	2.134
4128.	713.0	2.134
4144.	715.6	2.134
4160.	718.3	2.134
4176.	721.0	2.135
4192.	723.7	2.135
4208.	726.4	2.135
4224.	729.1	2.135
4240.	731.7	2.135
4256.	734.4	2.136
4272.	737.0	2.136
4288.	739.6	2.136
4304.	742.4	2.137
4320.	745.0	2.137
4336.	747.8	2.138
4352.	750.4	2.138
4368.	753.1	2.138
4384.	755.8	2.139
4400.	758.6	2.139
4416.	761.2	2.139
4432.	763.9	2.140
4448.	766.6	2.140
4464.	769.1	2.141
4480.	771.9	2.141
4496.	774.4	2.142
4512.	777.2	2.143
4528.	779.8	2.144
4544.	782.4	2.144
4560.	785.1	2.144
4576.	787.9	2.145
4592.	790.4	2.145
4608.	793.1	2.145
4624.	795.8	2.146
4640.	798.5	2.146
4648.	799.9	2.146