File: 220623 - TG_TGA/RESINA-A-TA.txt
nstrument TGA-50H
Module TGA-50H
Operator LJ - LATAT
Sample Kit10-Resina-A
Size 6.694 mg
Method
Comment
Xcomment Pan: Platinum
Xcomment Gas1: Nitrogen
Xcomment Balance Gas: Nitrogen 20.0 ml/min
Xcomment Sample Gas: Nitrogen 20.0 ml/min
Nsig 3
Sig1 Time (sec)
Sig2 Temperature (C)
Sig3 Weight (mg)
OrgMethod 1: Ramp 10.00 C/min to 800.00 C
0	28.54	6.69457
16	28.71	6.70319
32	29.79	6.70603
48	31.28	6.70734
64	32.76	6.70825
80	34.97	6.7101
96	37.67	6.71158
112	40.55	6.7118
128	43.38	6.71091
144	45.91	6.70976
160	48.4	6.70806
176	50.92	6.7073
192	53.46	6.70633
208	56.32	6.70465
224	58.97	6.70254
240	61.66	6.69998
256	64.24	6.69715
272	66.66	6.69479
288	69.35	6.69128
304	72.14	6.68774
320	74.82	6.68391
336	77.42	6.67884
352	79.94	6.67464
368	82.69	6.66975
384	85.37	6.66348
400	87.9	6.65845
416	90.72	6.65093
432	93.22	6.64371
448	95.95	6.63599
464	98.32	6.62807
480	101	6.62014
496	103.9	6.61012
512	106.5	6.60111
528	109.1	6.58969
544	111.6	6.57954
560	114.3	6.56763
576	117.2	6.55619
592	119.8	6.54244
608	122.5	6.52935
624	124.9	6.51514
640	127.5	6.50213
656	130.7	6.4875
672	133.2	6.47332
688	135.7	6.45802
704	138.3	6.44299
720	141	6.42808
736	143.5	6.41302
752	146.3	6.39865
768	149.1	6.383
784	151.7	6.36691
800	154.3	6.35179
816	156.8	6.33736
832	159.5	6.32288
848	162.1	6.30827
864	164.9	6.29389
880	167.7	6.27958
896	170.3	6.26542
912	172.9	6.25215
928	175.6	6.23861
944	178.3	6.2255
960	181	6.21245
976	183.7	6.19946
992	186.3	6.1872
1008	189.1	6.17512
1024	191.7	6.16361
1040	194.3	6.15242
1056	197.1	6.1415
1072	199.8	6.13053
1088	202.4	6.11991
1104	205	6.1097
1120	207.8	6.09947
1136	210.5	6.08928
1152	213	6.07948
1168	215.8	6.06997
1184	218.5	6.06037
1200	221.1	6.0511
1216	223.6	6.04189
1232	226.5	6.03296
1248	229.4	6.02374
1264	232	6.01433
1280	234.5	6.0055
1296	237	5.99695
1312	239.9	5.9881
1328	242.6	5.97934
1344	245.2	5.97035
1360	247.9	5.96157
1376	250.3	5.95275
1392	252.9	5.94456
1408	256	5.93556
1424	258.8	5.92652
1440	261.3	5.91722
1456	263.6	5.9079
1472	266.2	5.89853
1488	269.4	5.88875
1504	272.1	5.87829
1520	274.5	5.86773
1536	277	5.8559
1552	279.7	5.84485
1568	282.5	5.83243
1584	285.4	5.81974
1600	287.9	5.80507
1616	290.4	5.7903
1632	293.3	5.77486
1648	296	5.75804
1664	298.4	5.74051
1680	301.1	5.7228
1696	303.8	5.70315
1712	306.6	5.68199
1728	309.3	5.66017
1744	312	5.63629
1760	314.6	5.61042
1776	317.2	5.58273
1792	319.8	5.55231
1808	322.6	5.5213
1824	325.3	5.48524
1840	327.9	5.44818
1856	330.5	5.40792
1872	333.1	5.3647
1888	335.8	5.31889
1904	338.6	5.2689
1920	341.1	5.21502
1936	344.1	5.15719
1952	346.6	5.09607
1968	349.1	5.03118
1984	351.8	4.96259
2000	354.8	4.8896
2016	357.3	4.81281
2032	359.8	4.73207
2048	362.4	4.64884
2064	365.3	4.56398
2080	367.8	4.47298
2096	370.5	4.38021
2112	373.2	4.28335
2128	375.7	4.18356
2144	378.5	4.08026
2160	381.4	3.97108
2176	383.7	3.85856
2192	386.3	3.74588
2208	389.3	3.63231
2224	391.8	3.51285
2240	394.4	3.39692
2256	397.2	3.28798
2272	400	3.18908
2288	402.5	3.10034
2304	405.1	3.01981
2320	408	2.94331
2336	410.6	2.86984
2352	413.2	2.79666
2368	415.8	2.72367
2384	418.7	2.64884
2400	421.2	2.57418
2416	423.8	2.49652
2432	426.6	2.41929
2448	429.2	2.34195
2464	431.8	2.26446
2480	434.7	2.18738
2496	437.2	2.1144
2512	439.8	2.04538
2528	442.6	1.9813
2544	445.2	1.92471
2560	447.9	1.87472
2576	450.4	1.83097
2592	453	1.79286
2608	455.9	1.75835
2624	458.4	1.7281
2640	461.1	1.70082
2656	463.6	1.67758
2672	466.5	1.65663
2688	469.2	1.63702
2704	471.8	1.61883
2720	474.3	1.60212
2736	477.2	1.58552
2752	480.2	1.56907
2768	482.5	1.55232
2784	485.1	1.5358
2800	488	1.51871
2816	490.6	1.50043
2832	493.2	1.48152
2848	495.7	1.46232
2864	498.5	1.44059
2880	501.2	1.41929
2896	503.8	1.39672
2912	506.4	1.37401
2928	509.4	1.35123
2944	511.8	1.32776
2960	514.5	1.30583
2976	517.1	1.28506
2992	520	1.26631
3008	522.5	1.2483
3024	525.1	1.23156
3040	527.9	1.2167
3056	530.6	1.20246
3072	533.4	1.18847
3088	535.7	1.17529
3104	538.5	1.16291
3120	541.3	1.14845
3136	543.8	1.13573
3152	546.3	1.12132
3168	549.3	1.10745
3184	551.7	1.09355
3200	554.4	1.08072
3216	557.1	1.06721
3232	559.7	1.05361
3248	562.5	1.04048
3264	565.2	1.02703
3280	567.7	1.01227
3296	570.5	1.00014
3312	573.2	0.985669
3328	575.8	0.970819
3344	578.4	0.957384
3360	581.1	0.944399
3376	583.8	0.929384
3392	586.4	0.916844
3408	589.1	0.902174
3424	591.7	0.888235
3440	594.5	0.872693
3456	597.2	0.858167
3472	599.8	0.843971
3488	602.7	0.829768
3504	605.5	0.815581
3520	608	0.800603
3536	611	0.785926
3552	613.7	0.771325
3568	616.3	0.756362
3584	619.1	0.741053
3600	621.6	0.726121
3616	624.4	0.710518
3632	627	0.695067
3648	629.6	0.679593
3664	632.4	0.664299
3680	635	0.649208
3696	637.7	0.634253
3712	640.5	0.618516
3728	643	0.603079
3744	645.8	0.587327
3760	648.7	0.571183
3776	651.2	0.555686
3792	654	0.539956
3808	656.5	0.524399
3824	659.2	0.509136
3840	661.9	0.494331
3856	664.5	0.479331
3872	667.2	0.465301
3888	669.9	0.451527
3904	672.5	0.437783
3920	675.2	0.423783
3936	678	0.410235
3952	680.6	0.396551
3968	683.4	0.383507
3984	685.8	0.370605
4000	688.7	0.358072
4016	691.3	0.346194
4032	694	0.334902
4048	696.7	0.323927
4064	699.4	0.313417
4080	702.2	0.303894
4096	705	0.295024
4112	707.6	0.286133
4128	710.2	0.280288
4144	712.7	0.27454
4160	715.6	0.269771
4176	718	0.266732
4192	720.8	0.266235
4208	723.4	0.266085
4224	726.1	0.265949
4240	728.8	0.266205
4256	731.5	0.265611
4272	734.1	0.266777
4288	736.8	0.266243
4304	739.5	0.265739
4320	742.1	0.265746
4336	744.8	0.265566
4352	747.4	0.266333
4368	750	0.267356
4384	752.8	0.26774
4400	755.5	0.266942
4416	758.2	0.265415
4432	760.9	0.265137
4448	763.4	0.265295
4464	766	0.265663
4480	768.7	0.265927
4496	771.4	0.265362
4512	774	0.265505
4528	776.8	0.265919
4544	779.3	0.263662
4560	782	0.263399
4576	784.7	0.261827
4592	787.4	0.26197
4608	789.9	0.26054
4624	792.5	0.260217
4640	795.3	0.259863
4656	797.8	0.25942
4667	799.8	0.259562